SMPHLD01       1 Bereich
Sample Holder                           
Reference Spectrum                      
Overview                                
1. Bereich: Ueber1   BE
1 Scan     144 ms Dwell-Time    50 eV Pass-Energie   3333 Kanäle
Start  1100.00 eV       Step  0.15 eV
-
-
-
-
-
-
-
-
-
-
-
-
-
-
-
-
-
-
-
-
-
-
-
-
-
-
-
 1100.00   23707
 1099.85   23220
 1099.70   23596
 1099.55   23383
 1099.40   23512
 1099.25   23418
 1099.10   23575
 1098.95   23378
 1098.80   23313
 1098.65   23451
 1098.50   23363
 1098.35   23103
 1098.20   23225
 1098.05   23636
 1097.90   23394
 1097.75   23317
 1097.60   23250
 1097.45   23430
 1097.30   23001
 1097.15   23340
 1097.00   23330
 1096.85   23303
 1096.70   22793
 1096.55   22952
 1096.40   23144
 1096.25   23166
 1096.10   23149
 1095.95   23342
 1095.80   23292
 1095.65   23325
 1095.50   23169
 1095.35   23237
 1095.20   22850
 1095.05   22753
 1094.90   22876
 1094.75   22837
 1094.60   23182
 1094.45   23005
 1094.30   22983
 1094.15   22783
 1094.00   23018
 1093.85   23120
 1093.70   23172
 1093.55   22761
 1093.40   22905
 1093.25   22819
 1093.10   22650
 1092.95   22579
 1092.80   23038
 1092.65   22877
 1092.50   22889
 1092.35   22878
 1092.20   22807
 1092.05   22745
 1091.90   22733
 1091.75   22739
 1091.60   22773
 1091.45   22746
 1091.30   22588
 1091.15   23047
 1091.00   22707
 1090.85   22899
 1090.70   22912
 1090.55   22825
 1090.40   22979
 1090.25   22706
 1090.10   22732
 1089.95   22724
 1089.80   22719
 1089.65   22549
 1089.50   22497
 1089.35   22480
 1089.20   22399
 1089.05   22654
 1088.90   22638
 1088.75   22697
 1088.60   22536
 1088.45   22317
 1088.30   22295
 1088.15   22739
 1088.00   22580
 1087.85   22518
 1087.70   22612
 1087.55   22347
 1087.40   22527
 1087.25   22446
 1087.10   22311
 1086.95   22387
 1086.80   22434
 1086.65   22560
 1086.50   22129
 1086.35   22502
 1086.20   22525
 1086.05   22620
 1085.90   22414
 1085.75   22342
 1085.60   22269
 1085.45   22506
 1085.30   22419
 1085.15   22181
 1085.00   22252
 1084.85   22363
 1084.70   22311
 1084.55   22001
 1084.40   22029
 1084.25   22376
 1084.10   22525
 1083.95   22071
 1083.80   22169
 1083.65   21923
 1083.50   22166
 1083.35   22277
 1083.20   22201
 1083.05   22070
 1082.90   22021
 1082.75   21996
 1082.60   21872
 1082.45   22230
 1082.30   22382
 1082.15   22117
 1082.00   22094
 1081.85   22305
 1081.70   22083
 1081.55   22060
 1081.40   21968
 1081.25   22183
 1081.10   22191
 1080.95   22051
 1080.80   22074
 1080.65   22079
 1080.50   22009
 1080.35   22029
 1080.20   21948
 1080.05   22127
 1079.90   22175
 1079.75   22236
 1079.60   21684
 1079.45   21899
 1079.30   22042
 1079.15   22187
 1079.00   22206
 1078.85   22161
 1078.70   21911
 1078.55   22005
 1078.40   21877
 1078.25   22050
 1078.10   22349
 1077.95   22016
 1077.80   22119
 1077.65   22044
 1077.50   21786
 1077.35   22121
 1077.20   21975
 1077.05   21925
 1076.90   21735
 1076.75   22246
 1076.60   22099
 1076.45   22074
 1076.30   21860
 1076.15   21960
 1076.00   21956
 1075.85   22191
 1075.70   21872
 1075.55   21962
 1075.40   21909
 1075.25   21929
 1075.10   22192
 1074.95   21969
 1074.80   21973
 1074.65   21796
 1074.50   21859
 1074.35   22048
 1074.20   22199
 1074.05   22122
 1073.90   22017
 1073.75   22113
 1073.60   22303
 1073.45   22135
 1073.30   22113
 1073.15   22469
 1073.00   22191
 1072.85   22426
 1072.70   22517
 1072.55   22106
 1072.40   22299
 1072.25   22585
 1072.10   22400
 1071.95   22379
 1071.80   22218
 1071.65   22270
 1071.50   22086
 1071.35   22141
 1071.20   22002
 1071.05   21907
 1070.90   21652
 1070.75   22062
 1070.60   21771
 1070.45   21584
 1070.30   21629
 1070.15   21498
 1070.00   21438
 1069.85   21896
 1069.70   21813
 1069.55   21561
 1069.40   21745
 1069.25   21703
 1069.10   21553
 1068.95   21377
 1068.80   21330
 1068.65   21355
 1068.50   21475
 1068.35   21514
 1068.20   21407
 1068.05   21823
 1067.90   21314
 1067.75   21228
 1067.60   21455
 1067.45   21347
 1067.30   21632
 1067.15   21463
 1067.00   21495
 1066.85   21503
 1066.70   21746
 1066.55   21466
 1066.40   21416
 1066.25   21378
 1066.10   21323
 1065.95   21553
 1065.80   21517
 1065.65   21546
 1065.50   21350
 1065.35   21461
 1065.20   21444
 1065.05   21602
 1064.90   21423
 1064.75   21365
 1064.60   21238
 1064.45   21314
 1064.30   21342
 1064.15   21210
 1064.00   21296
 1063.85   21278
 1063.70   21188
 1063.55   21322
 1063.40   21205
 1063.25   21224
 1063.10   21147
 1062.95   21117
 1062.80   21284
 1062.65   21011
 1062.50   21105
 1062.35   21298
 1062.20   20997
 1062.05   21183
 1061.90   21270
 1061.75   21287
 1061.60   21134
 1061.45   20925
 1061.30   21308
 1061.15   20952
 1061.00   20964
 1060.85   21038
 1060.70   20963
 1060.55   21115
 1060.40   21248
 1060.25   21113
 1060.10   20894
 1059.95   21507
 1059.80   21066
 1059.65   20964
 1059.50   20865
 1059.35   21045
 1059.20   21004
 1059.05   20934
 1058.90   20844
 1058.75   21112
 1058.60   21050
 1058.45   21067
 1058.30   21019
 1058.15   21273
 1058.00   21043
 1057.85   21318
 1057.70   21111
 1057.55   21215
 1057.40   20882
 1057.25   21008
 1057.10   20799
 1056.95   20897
 1056.80   21015
 1056.65   20995
 1056.50   21239
 1056.35   21005
 1056.20   20982
 1056.05   20934
 1055.90   21227
 1055.75   20944
 1055.60   20904
 1055.45   20673
 1055.30   20949
 1055.15   20796
 1055.00   21129
 1054.85   21104
 1054.70   20906
 1054.55   21092
 1054.40   20757
 1054.25   20865
 1054.10   20981
 1053.95   21126
 1053.80   21022
 1053.65   20822
 1053.50   20938
 1053.35   20973
 1053.20   20677
 1053.05   20945
 1052.90   20796
 1052.75   20797
 1052.60   20797
 1052.45   21082
 1052.30   20935
 1052.15   20606
 1052.00   21013
 1051.85   20595
 1051.70   20610
 1051.55   20870
 1051.40   20772
 1051.25   20920
 1051.10   20986
 1050.95   20788
 1050.80   20891
 1050.65   20631
 1050.50   21073
 1050.35   20939
 1050.20   20795
 1050.05   20933
 1049.90   20779
 1049.75   20988
 1049.60   20770
 1049.45   20871
 1049.30   20875
 1049.15   20949
 1049.00   20846
 1048.85   20932
 1048.70   20646
 1048.55   20663
 1048.40   20689
 1048.25   20834
 1048.10   20941
 1047.95   21140
 1047.80   20838
 1047.65   21039
 1047.50   20617
 1047.35   20957
 1047.20   21203
 1047.05   21097
 1046.90   21203
 1046.75   21208
 1046.60   21239
 1046.45   21049
 1046.30   21505
 1046.15   21283
 1046.00   20961
 1045.85   21144
 1045.70   21030
 1045.55   21033
 1045.40   21079
 1045.25   20814
 1045.10   20888
 1044.95   21019
 1044.80   20858
 1044.65   20949
 1044.50   20692
 1044.35   20777
 1044.20   20838
 1044.05   20603
 1043.90   20524
 1043.75   20675
 1043.60   20635
 1043.45   20757
 1043.30   20745
 1043.15   20407
 1043.00   20656
 1042.85   20812
 1042.70   20650
 1042.55   20712
 1042.40   20693
 1042.25   20423
 1042.10   20743
 1041.95   20500
 1041.80   20657
 1041.65   20709
 1041.50   20607
 1041.35   20398
 1041.20   20640
 1041.05   20492
 1040.90   20326
 1040.75   20438
 1040.60   20425
 1040.45   20396
 1040.30   20230
 1040.15   20356
 1040.00   20614
 1039.85   20554
 1039.70   20381
 1039.55   20598
 1039.40   20503
 1039.25   20488
 1039.10   20424
 1038.95   20508
 1038.80   20516
 1038.65   20686
 1038.50   20230
 1038.35   20353
 1038.20   20404
 1038.05   20468
 1037.90   20515
 1037.75   20596
 1037.60   20474
 1037.45   20444
 1037.30   20667
 1037.15   20562
 1037.00   20741
 1036.85   20741
 1036.70   20486
 1036.55   20627
 1036.40   20415
 1036.25   20565
 1036.10   20496
 1035.95   20650
 1035.80   20533
 1035.65   20080
 1035.50   20448
 1035.35   20548
 1035.20   20438
 1035.05   20349
 1034.90   20334
 1034.75   20273
 1034.60   20265
 1034.45   20386
 1034.30   20417
 1034.15   20296
 1034.00   20191
 1033.85   20540
 1033.70   20304
 1033.55   20300
 1033.40   20355
 1033.25   20415
 1033.10   20261
 1032.95   20449
 1032.80   20255
 1032.65   20510
 1032.50   20368
 1032.35   20694
 1032.20   20283
 1032.05   20404
 1031.90   20382
 1031.75   20091
 1031.60   20483
 1031.45   20251
 1031.30   20250
 1031.15   20291
 1031.00   20373
 1030.85   20323
 1030.70   20422
 1030.55   20419
 1030.40   20255
 1030.25   20373
 1030.10   20218
 1029.95   20102
 1029.80   20232
 1029.65   20213
 1029.50   20398
 1029.35   20137
 1029.20   20200
 1029.05   20348
 1028.90   20448
 1028.75   20302
 1028.60   20256
 1028.45   20739
 1028.30   20403
 1028.15   20260
 1028.00   20084
 1027.85   20145
 1027.70   20284
 1027.55   20518
 1027.40   20023
 1027.25   20360
 1027.10   20258
 1026.95   20189
 1026.80   20246
 1026.65   20261
 1026.50   20264
 1026.35   20164
 1026.20   20353
 1026.05   20263
 1025.90   20274
 1025.75   20580
 1025.60   20405
 1025.45   20235
 1025.30   20502
 1025.15   20533
 1025.00   20474
 1024.85   20150
 1024.70   20588
 1024.55   20702
 1024.40   20717
 1024.25   20656
 1024.10   20832
 1023.95   20974
 1023.80   20796
 1023.65   20876
 1023.50   21073
 1023.35   21038
 1023.20   21132
 1023.05   20893
 1022.90   21089
 1022.75   21195
 1022.60   21093
 1022.45   20929
 1022.30   20986
 1022.15   20725
 1022.00   20849
 1021.85   20563
 1021.70   20617
 1021.55   20390
 1021.40   20410
 1021.25   20073
 1021.10   20266
 1020.95   20167
 1020.80   20145
 1020.65   20072
 1020.50   20092
 1020.35   20319
 1020.20   20102
 1020.05   20050
 1019.90   20391
 1019.75   19861
 1019.60   20260
 1019.45   20313
 1019.30   20011
 1019.15   20113
 1019.00   20074
 1018.85   20308
 1018.70   20383
 1018.55   20302
 1018.40   20429
 1018.25   20671
 1018.10   20358
 1017.95   20472
 1017.80   20593
 1017.65   20366
 1017.50   20310
 1017.35   20662
 1017.20   20296
 1017.05   20647
 1016.90   20053
 1016.75   20616
 1016.60   20745
 1016.45   20672
 1016.30   20618
 1016.15   20581
 1016.00   20772
 1015.85   20760
 1015.70   20872
 1015.55   20910
 1015.40   20945
 1015.25   20905
 1015.10   21123
 1014.95   20861
 1014.80   21008
 1014.65   21179
 1014.50   21060
 1014.35   21063
 1014.20   21012
 1014.05   20821
 1013.90   20886
 1013.75   20956
 1013.60   20997
 1013.45   20982
 1013.30   20902
 1013.15   20732
 1013.00   20604
 1012.85   20593
 1012.70   20660
 1012.55   20308
 1012.40   20467
 1012.25   20538
 1012.10   20507
 1011.95   20227
 1011.80   20241
 1011.65   20308
 1011.50   20107
 1011.35   20430
 1011.20   20368
 1011.05   20444
 1010.90   20010
 1010.75   20102
 1010.60   20304
 1010.45   20348
 1010.30   20191
 1010.15   20127
 1010.00   20186
 1009.85   19965
 1009.70   20278
 1009.55   20285
 1009.40   20254
 1009.25   20195
 1009.10   20241
 1008.95   20077
 1008.80   20018
 1008.65   19875
 1008.50   19964
 1008.35   19942
 1008.20   20087
 1008.05   20052
 1007.90   20335
 1007.75   20048
 1007.60   20072
 1007.45   19986
 1007.30   20161
 1007.15   20005
 1007.00   20207
 1006.85   19866
 1006.70   20012
 1006.55   20048
 1006.40   19991
 1006.25   20103
 1006.10   20010
 1005.95   19868
 1005.80   19905
 1005.65   19985
 1005.50   19936
 1005.35   19969
 1005.20   19922
 1005.05   20204
 1004.90   19965
 1004.75   20062
 1004.60   19852
 1004.45   19925
 1004.30   19966
 1004.15   20084
 1004.00   20153
 1003.85   20082
 1003.70   19990
 1003.55   19899
 1003.40   19802
 1003.25   20104
 1003.10   20060
 1002.95   20070
 1002.80   20226
 1002.65   20277
 1002.50   19920
 1002.35   20217
 1002.20   20012
 1002.05   20006
 1001.90   20010
 1001.75   20090
 1001.60   20201
 1001.45   20242
 1001.30   20341
 1001.15   20298
 1001.00   20312
 1000.85   20282
 1000.70   20544
 1000.55   20430
 1000.40   20207
 1000.25   20382
 1000.10   20219
  999.95   20301
  999.80   20198
  999.65   20304
  999.50   20455
  999.35   20526
  999.20   20414
  999.05   20294
  998.90   20344
  998.75   20560
  998.60   20366
  998.45   20556
  998.30   20439
  998.15   20474
  998.00   20588
  997.85   20407
  997.70   20646
  997.55   20374
  997.40   20439
  997.25   20702
  997.10   20629
  996.95   20430
  996.80   20643
  996.65   20733
  996.50   20497
  996.35   20499
  996.20   20433
  996.05   20445
  995.90   20194
  995.75   20491
  995.60   20881
  995.45   20678
  995.30   20715
  995.15   20766
  995.00   20595
  994.85   20715
  994.70   20539
  994.55   20482
  994.40   20595
  994.25   20438
  994.10   20580
  993.95   20712
  993.80   20516
  993.65   20413
  993.50   20686
  993.35   20575
  993.20   20792
  993.05   20501
  992.90   20373
  992.75   20727
  992.60   20829
  992.45   20618
  992.30   20436
  992.15   20290
  992.00   20700
  991.85   20305
  991.70   20501
  991.55   20434
  991.40   20521
  991.25   20544
  991.10   20533
  990.95   20617
  990.80   20313
  990.65   20377
  990.50   20728
  990.35   20690
  990.20   20636
  990.05   20276
  989.90   20300
  989.75   20306
  989.60   20190
  989.45   20123
  989.30   20291
  989.15   19910
  989.00   20235
  988.85   19972
  988.70   19705
  988.55   20313
  988.40   19756
  988.25   19846
  988.10   19906
  987.95   19795
  987.80   19898
  987.65   19653
  987.50   19936
  987.35   19485
  987.20   19769
  987.05   19450
  986.90   19540
  986.75   19449
  986.60   19449
  986.45   19291
  986.30   19272
  986.15   19538
  986.00   19432
  985.85   19261
  985.70   19405
  985.55   19103
  985.40   19438
  985.25   19395
  985.10   19255
  984.95   19083
  984.80   19098
  984.65   18963
  984.50   18900
  984.35   18906
  984.20   18939
  984.05   19005
  983.90   18678
  983.75   19070
  983.60   18537
  983.45   18629
  983.30   18714
  983.15   18759
  983.00   18926
  982.85   18640
  982.70   18904
  982.55   18386
  982.40   18434
  982.25   18610
  982.10   18384
  981.95   18369
  981.80   18344
  981.65   18395
  981.50   18494
  981.35   18430
  981.20   18285
  981.05   18384
  980.90   18371
  980.75   18168
  980.60   18087
  980.45   18187
  980.30   18205
  980.15   18257
  980.00   18186
  979.85   17947
  979.70   18207
  979.55   18307
  979.40   18168
  979.25   18061
  979.10   18105
  978.95   18014
  978.80   17921
  978.65   17852
  978.50   18016
  978.35   17756
  978.20   17982
  978.05   18071
  977.90   18210
  977.75   18269
  977.60   18013
  977.45   17894
  977.30   18079
  977.15   17935
  977.00   17840
  976.85   17781
  976.70   17731
  976.55   17795
  976.40   17882
  976.25   18139
  976.10   18142
  975.95   17779
  975.80   17741
  975.65   17909
  975.50   17829
  975.35   17840
  975.20   17941
  975.05   18086
  974.90   17775
  974.75   17978
  974.60   17882
  974.45   18002
  974.30   17551
  974.15   17789
  974.00   17659
  973.85   17726
  973.70   17728
  973.55   17783
  973.40   17577
  973.25   17581
  973.10   17689
  972.95   17850
  972.80   17398
  972.65   17965
  972.50   17750
  972.35   17725
  972.20   17618
  972.05   17596
  971.90   17772
  971.75   17468
  971.60   17829
  971.45   17839
  971.30   17848
  971.15   17482
  971.00   17455
  970.85   17998
  970.70   17447
  970.55   17671
  970.40   17575
  970.25   17641
  970.10   17623
  969.95   17554
  969.80   17897
  969.65   17677
  969.50   17709
  969.35   17421
  969.20   17647
  969.05   17774
  968.90   17620
  968.75   17895
  968.60   17758
  968.45   17792
  968.30   17990
  968.15   17769
  968.00   17932
  967.85   17662
  967.70   17681
  967.55   17797
  967.40   17838
  967.25   17811
  967.10   17471
  966.95   17492
  966.80   17718
  966.65   17900
  966.50   17740
  966.35   17654
  966.20   17654
  966.05   17814
  965.90   17882
  965.75   17876
  965.60   17694
  965.45   17730
  965.30   17782
  965.15   18011
  965.00   17799
  964.85   17714
  964.70   17974
  964.55   17995
  964.40   17898
  964.25   17843
  964.10   17910
  963.95   17862
  963.80   17726
  963.65   17622
  963.50   17703
  963.35   17940
  963.20   17874
  963.05   18014
  962.90   17745
  962.75   17962
  962.60   17491
  962.45   17452
  962.30   17742
  962.15   17742
  962.00   17758
  961.85   17686
  961.70   17563
  961.55   17605
  961.40   17501
  961.25   17694
  961.10   17722
  960.95   17752
  960.80   17813
  960.65   17695
  960.50   17481
  960.35   17982
  960.20   17515
  960.05   17568
  959.90   17857
  959.75   17714
  959.60   17637
  959.45   17756
  959.30   17534
  959.15   17722
  959.00   17810
  958.85   17629
  958.70   17631
  958.55   17615
  958.40   17469
  958.25   17662
  958.10   17769
  957.95   17424
  957.80   17742
  957.65   17532
  957.50   17678
  957.35   17698
  957.20   17946
  957.05   17749
  956.90   17401
  956.75   17501
  956.60   17583
  956.45   17622
  956.30   17452
  956.15   17495
  956.00   17690
  955.85   17688
  955.70   17532
  955.55   17829
  955.40   17802
  955.25   17541
  955.10   17618
  954.95   17742
  954.80   17705
  954.65   17639
  954.50   17531
  954.35   17698
  954.20   17864
  954.05   17529
  953.90   17774
  953.75   17610
  953.60   17780
  953.45   17763
  953.30   17748
  953.15   17763
  953.00   17522
  952.85   17466
  952.70   17627
  952.55   17694
  952.40   17453
  952.25   17624
  952.10   17542
  951.95   17374
  951.80   17576
  951.65   17467
  951.50   17445
  951.35   17557
  951.20   17564
  951.05   17639
  950.90   17638
  950.75   17308
  950.60   17757
  950.45   17367
  950.30   17425
  950.15   17483
  950.00   17413
  949.85   17442
  949.70   17364
  949.55   17349
  949.40   17390
  949.25   17366
  949.10   17330
  948.95   17389
  948.80   17468
  948.65   17389
  948.50   17500
  948.35   17554
  948.20   17407
  948.05   17345
  947.90   17785
  947.75   17394
  947.60   17372
  947.45   17539
  947.30   17531
  947.15   17333
  947.00   17476
  946.85   17551
  946.70   17600
  946.55   17480
  946.40   17411
  946.25   17654
  946.10   17493
  945.95   17498
  945.80   17676
  945.65   17522
  945.50   17644
  945.35   17468
  945.20   17398
  945.05   17391
  944.90   17743
  944.75   17547
  944.60   17348
  944.45   17382
  944.30   17337
  944.15   17615
  944.00   17327
  943.85   17491
  943.70   17366
  943.55   17858
  943.40   17377
  943.25   17590
  943.10   17612
  942.95   17407
  942.80   17460
  942.65   17485
  942.50   17561
  942.35   17618
  942.20   17445
  942.05   17440
  941.90   17654
  941.75   17582
  941.60   17140
  941.45   17352
  941.30   17570
  941.15   17443
  941.00   17559
  940.85   17449
  940.70   17482
  940.55   17666
  940.40   17257
  940.25   17579
  940.10   17429
  939.95   17456
  939.80   17517
  939.65   17216
  939.50   17677
  939.35   17408
  939.20   17366
  939.05   17225
  938.90   17411
  938.75   17454
  938.60   17300
  938.45   17593
  938.30   17434
  938.15   17507
  938.00   17473
  937.85   17582
  937.70   17335
  937.55   17613
  937.40   17610
  937.25   17473
  937.10   17638
  936.95   17652
  936.80   17751
  936.65   17373
